File: 1-REFERENCIAS/DADOS_EXTERNOS/PALM/XRD OPBA Calcinacion and ballmill Data Excel.txt
/////////////////////////////////////////////////////////////////////////////////
/// Profile Data Ascii Dump (XRD)                                             ///
/////////////////////////////////////////////////////////////////////////////////

  Group     : Standard
  Data      : ABKSNB
  File Name : ABKSNB.RAW

# Profile Datafile
          comment             =
          date & time         = 07-29-22 17:31:30

# Measurement Condition
    X-ray tube
          target              = Cu
          voltage             = 40.0 (kV)
          current             = 30.0 (mA)
    Slits
          divergence slit     = 1.00000 (deg)
          scatter slit        = 1.00000 (deg)
          receiving slit      = 0.30000 (mm)
    Scanning
          drive axis          = Theta-2Theta
          scan range          =    7.000 -   70.000
          scan mode           = Continuous Scan
          scan speed          =   2.0000 (deg/min)
          sampling pitch      =   0.0200 (deg)
          preset time         =   0.60 (sec)

# Data      [ Total No. = 3151 ]
  <2Theta>   <   I   >
     7.0000         4
     7.2200         4
     7.4400         6
     7.6600        10
     7.8800         8
     8.1000         6
     8.3200         6
     8.5400         6
     8.7600        12
     8.9800         6
     9.2000        10
     9.4200        12
     9.6400        14
     9.8600        10
    10.0800        12
    10.3000         8
    10.5200        22
    10.7400        14
    10.9600        16
    11.1800         8
    11.4000        16
    11.6200        20
    11.8400        18
    12.0600        12
    12.2800        14
    12.5000        10
    12.7200        12
    12.9400        12
    13.1600        12
    13.3800        16
    13.6000        16
    13.8200        12
    14.0400         6
    14.2600        12
    14.4800        10
    14.7000         8
    14.9200         6
    15.1400        10
    15.3600        10
    15.5800         4
    15.8000         8
    16.0200        12
    16.2400        14
    16.4600        14
    16.6800        12
    16.9000        10
    17.1200        10
    17.3400        10
    17.5600         6
    17.7800         8
    18.0000        18
    18.2200        18
    18.4400        10
    18.6600        14
    18.8800        10
    19.1000        18
    19.3200        16
    19.5400        14
    19.7600         8
    19.9800        12
    20.2000        12
    20.4200        14
    20.6400        14
    20.8600        10
    21.0800        12
    21.3000        18
    21.5200        10
    21.7400        10
    21.9600        20
    22.1800        20
    22.4000        14
    22.6200        16
    22.8400        18
    23.0600        12
    23.2800        22
    23.5000        20
    23.7200        16
    23.9400         4
    24.1600        10
    24.3800        14
    24.6000        14
    24.8200        14
    25.0400         6
    25.2600        10
    25.4800        12
    25.7000         8
    25.9200        14
    26.1400         6
    26.3600        12
    26.5800        10
    26.8000        12
    27.0200        14
    27.2400        10
    27.4600         6
    27.6800        16
    27.9000         6
    28.1200         8
    28.3400        12
    28.5600         8
    28.7800         6
    29.0000        10
    29.2200         4
    29.4400        16
    29.6600         8
    29.8800         8
    30.1000        10
    30.3200        10
    30.5400         8
    30.7600        10
    30.9800        16
    31.2000        10
    31.4200        14
    31.6400         8
    31.8600        10
    32.0800         6
    32.3000        14
    32.5200        10
    32.7400         4
    32.9600        12
    33.1800         8
    33.4000         4
    33.6200         4
    33.8400         8
    34.0600         2
    34.2800         8
    34.5000         6
    34.7200         6
    34.9400         8
    35.1600         4
    35.3800        10
    35.6000         8
    35.8200         6
    36.0400        10
    36.2600        12
    36.4800        12
    36.7000         8
    36.9200        10
    37.1400        14
    37.3600        10
    37.5800         6
    37.8000         4
    38.0200         6
    38.2400         8
    38.4600        14
    38.6800         4
    38.9000         6
    39.1200         4
    39.3400         6
    39.5600         2
    39.7800         4
    40.0000         4
    40.2200         4
    40.4400         8
    40.6600         8
    40.8800         8
    41.1000         2
    41.3200         4
    41.5400         6
    41.7600         4
    41.9800         8
    42.2000         6
    42.4200         4
    42.6400         2
    42.8600         4
    43.0800         4
    43.3000         4
    43.5200         8
    43.7400         8
    43.9600         6
    44.1800         2
    44.4000         6
    44.6200         6
    44.8400         8
    45.0600         8
    45.2800         6
    45.5000         4
    45.7200         4
    45.9400         2
    46.1600         0
    46.3800         6
    46.6000        10
    46.8200        10
    47.0400         2
    47.2600         2
    47.4800         4
    47.7000         8
    47.9200         0
    48.1400         2
    48.3600         2
    48.5800         4
    48.8000         4
    49.0200         4
    49.2400         4
    49.4600         2
    49.6800         4
    49.9000        12
    50.1200         2
    50.3400         6
    50.5600         2
    50.7800         2
    51.0000         4
    51.2200         4
    51.4400         4
    51.6600         8
    51.8800         4
    52.1000         4
    52.3200         8
    52.5400         2
    52.7600         4
    52.9800         6
    53.2000         2
    53.4200         4
    53.6400         2
    53.8600         4
    54.0800         6
    54.3000         2
    54.5200         4
    54.7400         4
    54.9600         6
    55.1800         4
    55.4000         6
    55.6200         0
    55.8400         2
    56.0600         4
    56.2800         6
    56.5000         6
    56.7200         4
    56.9400         4
    57.1600         8
    57.3800         2
    57.6000         2
    57.8200         2
    58.0400         4
    58.2600         2
    58.4800         6
    58.7000         4
    58.9200         2
    59.1400         4
    59.3600         2
    59.5800         2
    59.8000         8
    60.0200         4
    60.2400        10
    60.4600         4
    60.6800         4
    60.9000         2
    61.1200         4
    61.3400         4
    61.5600         2
    61.7800         6
    62.0000         4
    62.2200         4
    62.4400         2
    62.6600         4
    62.8800         4
    63.1000         4
    63.3200         2
    63.5400         2
    63.7600         4
    63.9800         4
    64.2000         2
    64.4200         6
    64.6400         2
    64.8600         2
    65.0800         4
    65.3000         0
    65.5200         4
    65.7400         4
    65.9600         4
    66.1800         2
    66.4000         6
    66.6200        10
    66.8400         4
    67.0600         4
    67.2800         2
    67.5000         4
    67.7200         8
    67.9400         4
    68.1600         4
    68.3800         0
    68.6000         0
    68.8200         6
    69.0400         6
    69.2600         2
    69.4800         2
    69.7000         0
    69.9200         4
    70.0000         0