File: 1-REFERENCIAS/DADOS_EXTERNOS/PALM/XRD OPBA PEG 6000 Data Excel.txt
/////////////////////////////////////////////////////////////////////////////////
/// Profile Data Ascii Dump (XRD)                                             ///
/////////////////////////////////////////////////////////////////////////////////

  Group     : Standard
  Data      : Loiss
  File Name : Loiss.RAW

# Profile Datafile
          comment             =
          date & time         = 08-01-22 14:07:26

# Measurement Condition
    X-ray tube
          target              = Cu
          voltage             = 40.0 (kV)
          current             = 30.0 (mA)
    Slits
          divergence slit     = 1.00000 (deg)
          scatter slit        = 1.00000 (deg)
          receiving slit      = 0.30000 (mm)
    Scanning
          drive axis          = Theta-2Theta
          scan range          =    7.000 -   70.000
          scan mode           = Continuous Scan
          scan speed          =   2.0000 (deg/min)
          sampling pitch      =   0.0200 (deg)
          preset time         =   0.60 (sec)

# Data      [ Total No. = 3151 ]
  <2Theta>   <   I   >
     7.0000        10
     7.2200         4
     7.4400         8
     7.6600         8
     7.8800         6
     8.1000        10
     8.3200        10
     8.5400         6
     8.7600        12
     8.9800        14
     9.2000         8
     9.4200        12
     9.6400        10
     9.8600        12
    10.0800        12
    10.3000        12
    10.5200        18
    10.7400        16
    10.9600        10
    11.1800        18
    11.4000        12
    11.6200        18
    11.8400        14
    12.0600         6
    12.2800         8
    12.5000        12
    12.7200        14
    12.9400        12
    13.1600         6
    13.3800        16
    13.6000         8
    13.8200         8
    14.0400         6
    14.2600         6
    14.4800         8
    14.7000        12
    14.9200         6
    15.1400        12
    15.3600         8
    15.5800        10
    15.8000         8
    16.0200        10
    16.2400        10
    16.4600         8
    16.6800        10
    16.9000         6
    17.1200         6
    17.3400        12
    17.5600         8
    17.7800        10
    18.0000        12
    18.2200        14
    18.4400        18
    18.6600        16
    18.8800        18
    19.1000        28
    19.3200        14
    19.5400        12
    19.7600        10
    19.9800        10
    20.2000         8
    20.4200        12
    20.6400        18
    20.8600        12
    21.0800        12
    21.3000        10
    21.5200        10
    21.7400        16
    21.9600        16
    22.1800        12
    22.4000        12
    22.6200        20
    22.8400        20
    23.0600        26
    23.2800        28
    23.5000        30
    23.7200        22
    23.9400        14
    24.1600        14
    24.3800         8
    24.6000        10
    24.8200         4
    25.0400        10
    25.2600        12
    25.4800        10
    25.7000         4
    25.9200        12
    26.1400        10
    26.3600         6
    26.5800        22
    26.8000        12
    27.0200        16
    27.2400        10
    27.4600         6
    27.6800         8
    27.9000        12
    28.1200         8
    28.3400         8
    28.5600        12
    28.7800         4
    29.0000         8
    29.2200         6
    29.4400         4
    29.6600         6
    29.8800        10
    30.1000        10
    30.3200         4
    30.5400         6
    30.7600         6
    30.9800         8
    31.2000         8
    31.4200        10
    31.6400         6
    31.8600        10
    32.0800        12
    32.3000        14
    32.5200         8
    32.7400         4
    32.9600         8
    33.1800         8
    33.4000         4
    33.6200         6
    33.8400         6
    34.0600        10
    34.2800         6
    34.5000         6
    34.7200         2
    34.9400         4
    35.1600        14
    35.3800         8
    35.6000         8
    35.8200         6
    36.0400         6
    36.2600         6
    36.4800         6
    36.7000        10
    36.9200         8
    37.1400         6
    37.3600        10
    37.5800         8
    37.8000         6
    38.0200        10
    38.2400         4
    38.4600         2
    38.6800         6
    38.9000         8
    39.1200         6
    39.3400         6
    39.5600         2
    39.7800         8
    40.0000         6
    40.2200        12
    40.4400         4
    40.6600         2
    40.8800         6
    41.1000         4
    41.3200         6
    41.5400         6
    41.7600         4
    41.9800         4
    42.2000         8
    42.4200         8
    42.6400         6
    42.8600         4
    43.0800         0
    43.3000         4
    43.5200         6
    43.7400         4
    43.9600         8
    44.1800         4
    44.4000         4
    44.6200         2
    44.8400         8
    45.0600         2
    45.2800         8
    45.5000         8
    45.7200        10
    45.9400         2
    46.1600         0
    46.3800         8
    46.6000         4
    46.8200         8
    47.0400         4
    47.2600         4
    47.4800         6
    47.7000         2
    47.9200         6
    48.1400         4
    48.3600         6
    48.5800         8
    48.8000         8
    49.0200         6
    49.2400         8
    49.4600         2
    49.6800         6
    49.9000         4
    50.1200         6
    50.3400         4
    50.5600         4
    50.7800         4
    51.0000         6
    51.2200         4
    51.4400         8
    51.6600         2
    51.8800         2
    52.1000         6
    52.3200         4
    52.5400         2
    52.7600         8
    52.9800         4
    53.2000         4
    53.4200         6
    53.6400         4
    53.8600         4
    54.0800         4
    54.3000         6
    54.5200         2
    54.7400         4
    54.9600         4
    55.1800         2
    55.4000         2
    55.6200         4
    55.8400         6
    56.0600         4
    56.2800         8
    56.5000         4
    56.7200         2
    56.9400         4
    57.1600         4
    57.3800         6
    57.6000         6
    57.8200         2
    58.0400         6
    58.2600         2
    58.4800         6
    58.7000         6
    58.9200         6
    59.1400         4
    59.3600         2
    59.5800         2
    59.8000         0
    60.0200         6
    60.2400         2
    60.4600         8
    60.6800         4
    60.9000         0
    61.1200         2
    61.3400         4
    61.5600         4
    61.7800         4
    62.0000         6
    62.2200         6
    62.4400         4
    62.6600         8
    62.8800         2
    63.1000         4
    63.3200         0
    63.5400         0
    63.7600         2
    63.9800         2
    64.2000         4
    64.4200         6
    64.6400         4
    64.8600         2
    65.0800         2
    65.3000         2
    65.5200         2
    65.7400         4
    65.9600         6
    66.1800         2
    66.4000         6
    66.6200         6
    66.8400         4
    67.0600         2
    67.2800         4
    67.5000         4
    67.7200         4
    67.9400         4
    68.1600         4
    68.3800         2
    68.6000         2
    68.8200         2
    69.0400         4
    69.2600         2
    69.4800         0
    69.7000         4
    69.9200         4
    70.0000         4