File: 1-REFERENCIAS/DADOS_EXTERNOS/PALM/XRD OPBA copresipitation Data Excel.txt
/////////////////////////////////////////////////////////////////////////////////
/// Profile Data Ascii Dump (XRD)                                             ///
/////////////////////////////////////////////////////////////////////////////////

  Group     : Standard
  Data      : ABKS-5MHCl
  File Name : ABKS-5MHCl.RAW

# Profile Datafile
          comment             = ok
          date & time         = 05-31-21 15:48:04

# Measurement Condition
    X-ray tube
          target              = Cu
          voltage             = 40.0 (kV)
          current             = 30.0 (mA)
    Slits
          divergence slit     = 1.00000 (deg)
          scatter slit        = 1.00000 (deg)
          receiving slit      = 0.30000 (mm)
    Scanning
          drive axis          = Theta-2Theta
          scan range          =    7.000 -   70.000
          scan mode           = Continuous Scan
          scan speed          =   2.0000 (deg/min)
          sampling pitch      =   0.0200 (deg)
          preset time         =   0.60 (sec)

# Data      [ Total No. = 3151 ]
  <2Theta>   <   I   >
     7.0000        18
     7.2200        20
     7.4400        16
     7.6600        24
     7.8800        22
     8.1000        20
     8.3200        26
     8.5400        32
     8.7600        24
     8.9800        12
     9.2000        18
     9.4200        20
     9.6400        22
     9.8600        18
    10.0800        26
    10.3000        22
    10.5200        22
    10.7400        20
    10.9600        16
    11.1800        18
    11.4000        16
    11.6200        18
    11.8400        20
    12.0600        12
    12.2800        16
    12.5000        10
    12.7200        16
    12.9400        18
    13.1600        14
    13.3800        20
    13.6000        18
    13.8200        18
    14.0400        12
    14.2600        12
    14.4800        18
    14.7000        18
    14.9200        12
    15.1400        20
    15.3600        10
    15.5800        24
    15.8000        26
    16.0200        20
    16.2400        22
    16.4600        16
    16.6800        20
    16.9000        20
    17.1200         6
    17.3400        14
    17.5600        20
    17.7800        26
    18.0000        10
    18.2200        14
    18.4400        18
    18.6600        14
    18.8800        18
    19.1000        26
    19.3200        20
    19.5400        20
    19.7600        14
    19.9800        16
    20.2000        28
    20.4200        20
    20.6400        24
    20.8600        18
    21.0800        34
    21.3000        22
    21.5200        22
    21.7400        22
    21.9600        18
    22.1800        30
    22.4000        22
    22.6200        28
    22.8400        18
    23.0600        22
    23.2800        18
    23.5000        22
    23.7200        34
    23.9400        14
    24.1600        14
    24.3800        24
    24.6000        26
    24.8200        30
    25.0400        26
    25.2600        24
    25.4800        22
    25.7000        32
    25.9200        26
    26.1400        34
    26.3600        36
    26.5800        14
    26.8000        22
    27.0200        18
    27.2400        28
    27.4600        30
    27.6800        22
    27.9000        30
    28.1200        20
    28.3400        26
    28.5600        18
    28.7800        22
    29.0000        22
    29.2200        18
    29.4400         6
    29.6600        18
    29.8800        20
    30.1000        18
    30.3200        22
    30.5400        18
    30.7600        24
    30.9800        18
    31.2000        20
    31.4200        18
    31.6400        22
    31.8600        20
    32.0800        22
    32.3000        26
    32.5200        18
    32.7400        16
    32.9600        18
    33.1800        10
    33.4000        20
    33.6200        10
    33.8400        16
    34.0600        24
    34.2800        18
    34.5000        18
    34.7200        20
    34.9400        16
    35.1600        20
    35.3800        16
    35.6000        14
    35.8200        32
    36.0400        10
    36.2600        18
    36.4800         6
    36.7000        18
    36.9200        12
    37.1400        10
    37.3600        16
    37.5800         8
    37.8000        14
    38.0200        12
    38.2400         8
    38.4600        18
    38.6800        18
    38.9000        16
    39.1200         8
    39.3400        14
    39.5600        12
    39.7800        10
    40.0000        12
    40.2200        10
    40.4400         8
    40.6600        10
    40.8800        12
    41.1000        18
    41.3200         8
    41.5400         6
    41.7600        10
    41.9800        10
    42.2000         8
    42.4200        12
    42.6400        14
    42.8600        20
    43.0800        10
    43.3000        10
    43.5200         8
    43.7400         6
    43.9600        10
    44.1800        10
    44.4000        10
    44.6200         8
    44.8400        10
    45.0600         8
    45.2800        24
    45.5000        10
    45.7200        14
    45.9400         8
    46.1600         6
    46.3800         8
    46.6000        10
    46.8200         8
    47.0400        16
    47.2600         8
    47.4800        14
    47.7000        10
    47.9200        14
    48.1400        14
    48.3600        16
    48.5800         4
    48.8000        16
    49.0200        14
    49.2400        10
    49.4600        10
    49.6800        10
    49.9000        12
    50.1200         8
    50.3400         8
    50.5600        20
    50.7800        12
    51.0000        14
    51.2200         6
    51.4400         6
    51.6600         8
    51.8800        12
    52.1000        10
    52.3200         6
    52.5400         8
    52.7600         6
    52.9800         8
    53.2000         2
    53.4200         8
    53.6400        10
    53.8600         8
    54.0800        16
    54.3000         6
    54.5200        14
    54.7400         6
    54.9600        12
    55.1800        14
    55.4000        12
    55.6200         8
    55.8400        12
    56.0600         6
    56.2800         8
    56.5000        16
    56.7200        10
    56.9400         8
    57.1600         6
    57.3800         4
    57.6000         4
    57.8200         6
    58.0400         8
    58.2600         4
    58.4800         4
    58.7000        10
    58.9200         8
    59.1400         6
    59.3600         8
    59.5800        14
    59.8000        24
    60.0200        12
    60.2400        14
    60.4600        12
    60.6800        16
    60.9000        10
    61.1200        14
    61.3400         2
    61.5600         6
    61.7800        10
    62.0000         6
    62.2200        12
    62.4400         8
    62.6600         8
    62.8800         6
    63.1000         8
    63.3200         6
    63.5400        10
    63.7600        14
    63.9800        14
    64.2000         6
    64.4200        10
    64.6400         8
    64.8600         8
    65.0800        12
    65.3000        10
    65.5200         6
    65.7400         4
    65.9600         8
    66.1800         6
    66.4000         6
    66.6200        10
    66.8400        10
    67.0600         4
    67.2800         0
    67.5000         6
    67.7200         4
    67.9400         8
    68.1600        10
    68.3800         4
    68.6000        12
    68.8200         2
    69.0400        12
    69.2600        12
    69.4800         6
    69.7000         8
    69.9200        10
    70.0000         6